# Voltage vs time V(t), example data 2, Exercise 2.
#     Time in seconds, voltage in millivolts.
#     Columns: t, mV(t)
0.00000, 542.00000
0.01000, 542.70000
0.02000, 542.00000
0.03000, 541.60000
0.04000, 542.10000
0.05000, 542.40000
0.06000, 541.70000
0.07000, 541.60000
0.08000, 542.80000
0.09000, 541.80000
0.10000, 542.10000
0.11000, 542.10000
0.12000, 542.40000
0.13000, 542.10000
0.14000, 541.80000
0.15000, 541.70000
0.16000, 543.00000
0.17000, 543.50000
0.18000, 542.10000
0.19000, 541.70000
0.20000, 542.30000
0.21000, 541.80000
0.22000, 542.10000
0.23000, 542.20000
0.24000, 542.70000
0.25000, 543.00000
0.26000, 542.90000
0.27000, 541.90000
0.28000, 542.50000
0.29000, 542.70000
0.30000, 542.80000
0.31000, 542.90000
0.32000, 544.10000
0.33000, 542.80000
0.34000, 542.70000
0.35000, 542.70000
0.36000, 543.30000
0.37000, 543.30000
0.38000, 543.90000
0.39000, 543.40000
0.40000, 543.30000
0.41000, 542.90000
0.42000, 542.70000
0.43000, 542.00000
0.44000, 542.10000
0.45000, 542.00000
0.46000, 541.40000
0.47000, 542.30000
0.48000, 541.70000
0.49000, 541.60000
0.50000, 541.90000
0.51000, 542.00000
0.52000, 542.20000
0.53000, 542.00000
0.54000, 541.50000
0.55000, 542.90000
0.56000, 542.40000
0.57000, 541.90000
0.58000, 541.80000
0.59000, 541.80000
0.60000, 541.90000
0.61000, 541.70000
0.62000, 542.10000
0.63000, 542.00000
0.64000, 542.40000
0.65000, 541.80000
0.66000, 541.60000
0.67000, 542.30000
0.68000, 541.70000
0.69000, 541.90000
0.70000, 542.30000
0.71000, 542.10000
0.72000, 542.10000
0.73000, 541.80000
0.74000, 542.20000
0.75000, 542.00000
0.76000, 541.60000
0.77000, 543.10000
0.78000, 541.90000
0.79000, 542.70000
0.80000, 542.00000
0.81000, 542.30000
0.82000, 542.00000
0.83000, 542.00000
0.84000, 542.00000
0.85000, 542.30000
0.86000, 542.20000
0.87000, 542.10000
0.88000, 542.50000
0.89000, 542.90000
0.90000, 543.50000
0.91000, 542.90000
0.92000, 543.10000
0.93000, 542.40000
0.94000, 543.60000
0.95000, 543.20000
0.96000, 543.40000
0.97000, 543.40000
0.98000, 542.60000
0.99000, 542.20000
1.00000, 541.40000
1.01000, 541.80000
1.02000, 542.10000
1.03000, 543.10000
1.04000, 542.70000
1.05000, 543.50000
1.06000, 542.20000
1.07000, 542.60000
1.08000, 543.20000
1.09000, 541.50000
1.10000, 543.10000
1.11000, 543.20000
1.12000, 543.30000
1.13000, 542.20000
1.14000, 542.10000
1.15000, 542.80000
1.16000, 542.00000
1.17000, 543.60000
1.18000, 543.00000
1.19000, 542.10000
1.20000, 543.40000
1.21000, 542.90000
1.22000, 541.80000
1.23000, 542.80000
1.24000, 541.70000
1.25000, 541.90000
1.26000, 542.60000
1.27000, 542.00000
1.28000, 542.10000
1.29000, 542.20000
1.30000, 542.20000
1.31000, 541.80000
1.32000, 542.90000
1.33000, 543.00000
1.34000, 542.40000
1.35000, 541.70000
1.36000, 542.30000
1.37000, 541.40000
1.38000, 542.30000
1.39000, 542.40000
1.40000, 542.70000
1.41000, 542.90000
1.42000, 542.90000
1.43000, 543.60000
1.44000, 543.10000
1.45000, 542.00000
1.46000, 542.20000
1.47000, 541.10000
1.48000, 541.60000
1.49000, 543.40000
1.50000, 543.00000
1.51000, 542.80000
1.52000, 542.90000
1.53000, 541.50000
1.54000, 542.00000
1.55000, 542.10000
1.56000, 541.80000
1.57000, 543.00000
1.58000, 543.10000
1.59000, 543.10000
1.60000, 542.40000
1.61000, 541.80000
1.62000, 542.20000
1.63000, 543.10000
1.64000, 543.60000
1.65000, 542.70000
1.66000, 542.70000
1.67000, 541.30000
1.68000, 542.80000
1.69000, 541.70000
1.70000, 542.00000
1.71000, 541.30000
1.72000, 542.30000
1.73000, 540.80000
1.74000, 541.50000
1.75000, 543.50000
1.76000, 543.30000
1.77000, 544.20000
1.78000, 543.20000
1.79000, 542.00000
1.80000, 541.80000
1.81000, 542.40000
1.82000, 543.20000
1.83000, 543.70000
1.84000, 543.10000
1.85000, 542.90000
1.86000, 542.50000
1.87000, 543.50000
1.88000, 543.40000
1.89000, 543.20000
1.90000, 542.50000
1.91000, 542.20000
1.92000, 542.40000
1.93000, 543.00000
1.94000, 543.00000
1.95000, 542.20000
1.96000, 541.60000
1.97000, 541.90000
1.98000, 542.30000
1.99000, 542.30000
2.00000, 543.00000
2.01000, 543.00000
2.02000, 542.80000
2.03000, 542.80000
2.04000, 543.40000
2.05000, 541.70000
2.06000, 542.40000
2.07000, 543.10000
2.08000, 541.90000
2.09000, 543.20000
2.10000, 543.70000
2.11000, 542.60000
2.12000, 542.60000
2.13000, 543.20000
2.14000, 543.10000
2.15000, 542.60000
2.16000, 542.20000
2.17000, 542.50000
2.18000, 541.40000
2.19000, 542.40000
2.20000, 541.70000
2.21000, 542.30000
2.22000, 543.40000
2.23000, 542.80000
2.24000, 542.50000
2.25000, 542.80000
2.26000, 543.20000
2.27000, 543.30000
2.28000, 543.40000
2.29000, 542.90000
2.30000, 542.10000
2.31000, 542.30000
2.32000, 541.90000
2.33000, 542.20000
2.34000, 541.90000
2.35000, 542.80000
2.36000, 542.20000
2.37000, 541.90000
2.38000, 543.20000
2.39000, 543.60000
2.40000, 543.10000
2.41000, 542.10000
2.42000, 542.10000
2.43000, 542.90000
2.44000, 543.30000
2.45000, 542.60000
2.46000, 543.20000
2.47000, 543.40000
2.48000, 543.40000
2.49000, 543.00000
2.50000, 542.50000
2.51000, 543.20000
2.52000, 542.30000
2.53000, 543.30000
2.54000, 543.10000
2.55000, 542.00000
2.56000, 542.80000
2.57000, 541.90000
2.58000, 543.20000
2.59000, 543.00000
2.60000, 542.90000
2.61000, 542.20000
2.62000, 542.10000
2.63000, 543.20000
2.64000, 542.50000
2.65000, 542.60000
2.66000, 543.00000
2.67000, 543.40000
2.68000, 542.40000
2.69000, 543.80000
2.70000, 542.80000
2.71000, 543.20000
2.72000, 542.90000
2.73000, 544.40000
2.74000, 542.80000
2.75000, 543.00000
2.76000, 543.00000
2.77000, 542.90000
2.78000, 543.50000
2.79000, 542.60000
2.80000, 542.70000
2.81000, 543.00000
2.82000, 542.80000
2.83000, 542.00000
2.84000, 542.10000
2.85000, 542.40000
2.86000, 543.00000
2.87000, 542.60000
2.88000, 541.90000
2.89000, 541.60000
2.90000, 542.10000
2.91000, 542.30000
2.92000, 542.00000
2.93000, 542.60000
2.94000, 541.80000
2.95000, 542.30000
2.96000, 541.70000
2.97000, 542.20000
2.98000, 543.10000
2.99000, 542.90000
3.00000, 542.70000
3.01000, 541.70000
3.02000, 542.60000
3.03000, 542.00000
3.04000, 542.60000
3.05000, 543.00000
3.06000, 541.70000
3.07000, 541.90000
3.08000, 542.50000
3.09000, 542.70000
3.10000, 543.50000
3.11000, 543.10000
3.12000, 542.70000
3.13000, 542.70000
3.14000, 543.10000
3.15000, 542.50000
3.16000, 542.90000
3.17000, 541.80000
3.18000, 541.80000
3.19000, 542.20000
3.20000, 542.00000
3.21000, 542.70000
3.22000, 543.70000
3.23000, 542.20000
3.24000, 542.00000
3.25000, 541.60000
3.26000, 542.60000
3.27000, 542.00000
3.28000, 542.20000
3.29000, 542.40000
3.30000, 542.60000
3.31000, 541.80000
3.32000, 542.40000
3.33000, 542.10000
3.34000, 541.60000
3.35000, 542.00000
3.36000, 542.50000
3.37000, 542.60000
3.38000, 541.60000
3.39000, 541.70000
3.40000, 541.40000
3.41000, 542.50000
3.42000, 543.80000
3.43000, 542.50000
3.44000, 542.80000
3.45000, 542.20000
3.46000, 542.80000
3.47000, 543.20000
3.48000, 543.20000
3.49000, 543.00000
3.50000, 542.90000
3.51000, 542.70000
3.52000, 542.80000
3.53000, 542.30000
3.54000, 542.60000
3.55000, 543.40000
3.56000, 543.90000
3.57000, 542.80000
3.58000, 543.40000
3.59000, 542.50000
3.60000, 542.80000
3.61000, 542.10000
3.62000, 543.10000
3.63000, 542.00000
3.64000, 542.70000
3.65000, 543.10000
3.66000, 543.00000
3.67000, 542.20000
3.68000, 541.20000
3.69000, 542.20000
3.70000, 541.80000
3.71000, 542.20000
3.72000, 543.60000
3.73000, 543.20000
3.74000, 542.30000
3.75000, 543.00000
3.76000, 542.50000
3.77000, 542.30000
3.78000, 542.00000
3.79000, 541.80000
3.80000, 542.10000
3.81000, 541.50000
3.82000, 542.30000
3.83000, 542.60000
3.84000, 543.00000
3.85000, 542.40000
3.86000, 542.50000
3.87000, 542.70000
3.88000, 542.90000
3.89000, 541.50000
3.90000, 543.40000
3.91000, 542.90000
3.92000, 543.60000
3.93000, 542.90000
3.94000, 543.00000
3.95000, 543.30000
3.96000, 543.20000
3.97000, 543.50000
3.98000, 542.90000
3.99000, 542.30000
4.00000, 542.20000
4.01000, 543.00000
4.02000, 543.30000
4.03000, 542.80000
4.04000, 542.50000
4.05000, 542.70000
4.06000, 543.70000
4.07000, 543.00000
4.08000, 543.30000
4.09000, 543.20000
4.10000, 541.50000
4.11000, 541.50000
4.12000, 542.60000
4.13000, 542.10000
4.14000, 541.90000
4.15000, 541.10000
4.16000, 543.00000
4.17000, 543.50000
4.18000, 542.80000
4.19000, 542.80000
4.20000, 542.60000
4.21000, 542.90000
4.22000, 542.40000
4.23000, 542.00000
4.24000, 541.60000
4.25000, 541.20000
4.26000, 541.90000
4.27000, 541.40000
4.28000, 541.80000
4.29000, 542.60000
4.30000, 542.10000
4.31000, 542.00000
4.32000, 542.00000
4.33000, 541.90000
4.34000, 541.60000
4.35000, 540.90000
4.36000, 542.00000
4.37000, 542.20000
4.38000, 542.70000
4.39000, 542.90000
4.40000, 542.80000
4.41000, 543.60000
4.42000, 543.40000
4.43000, 543.00000
4.44000, 542.90000
4.45000, 543.30000
4.46000, 542.00000
4.47000, 542.00000
4.48000, 542.20000
4.49000, 541.80000
4.50000, 543.40000
4.51000, 543.30000
4.52000, 542.70000
4.53000, 543.10000
4.54000, 542.90000
4.55000, 542.90000
4.56000, 542.90000
4.57000, 542.70000
4.58000, 542.80000
4.59000, 542.90000
4.60000, 542.80000
4.61000, 543.00000
4.62000, 543.50000
4.63000, 543.20000
4.64000, 543.50000
4.65000, 543.10000
4.66000, 542.60000
4.67000, 542.00000
4.68000, 541.90000
4.69000, 541.90000
4.70000, 541.80000
4.71000, 541.80000
4.72000, 542.00000
4.73000, 542.30000
4.74000, 542.30000
4.75000, 543.70000
4.76000, 543.80000
4.77000, 542.60000
4.78000, 541.80000
4.79000, 543.00000
4.80000, 542.70000
4.81000, 543.20000
4.82000, 542.10000
4.83000, 542.10000
4.84000, 542.60000
4.85000, 542.90000
4.86000, 542.80000
4.87000, 542.50000
4.88000, 543.00000
4.89000, 541.90000
4.90000, 541.60000
4.91000, 542.10000
4.92000, 542.10000
4.93000, 541.70000
4.94000, 542.20000
4.95000, 543.50000
4.96000, 542.60000
4.97000, 541.70000
4.98000, 543.30000
4.99000, 542.70000
5.00000, 541.30000
5.01000, 542.30000
5.02000, 542.70000
5.03000, 541.80000
5.04000, 541.80000
5.05000, 542.00000
5.06000, 542.10000
5.07000, 542.20000
5.08000, 541.80000
5.09000, 541.70000
5.10000, 543.50000
5.11000, 543.30000
5.12000, 542.80000
5.13000, 543.70000
5.14000, 542.60000
5.15000, 542.60000
5.16000, 543.30000
5.17000, 543.90000
5.18000, 542.70000
5.19000, 543.00000
5.20000, 543.10000
5.21000, 542.90000
5.22000, 542.40000
5.23000, 542.30000
5.24000, 542.40000
5.25000, 542.90000
5.26000, 543.30000
5.27000, 541.40000
5.28000, 542.00000
5.29000, 541.70000
5.30000, 542.30000
5.31000, 543.20000
5.32000, 543.20000
5.33000, 542.80000
5.34000, 543.30000
5.35000, 542.90000
5.36000, 541.90000
5.37000, 542.10000
5.38000, 542.80000
5.39000, 542.10000
5.40000, 543.40000
5.41000, 542.60000
5.42000, 543.00000
5.43000, 543.20000
5.44000, 542.20000
5.45000, 542.50000
5.46000, 541.60000
5.47000, 541.90000
5.48000, 543.70000
5.49000, 543.20000
5.50000, 543.10000
5.51000, 542.00000
5.52000, 542.20000
5.53000, 541.20000
5.54000, 541.70000
5.55000, 542.10000
5.56000, 542.10000
5.57000, 542.10000
5.58000, 542.00000
5.59000, 542.40000
5.60000, 542.70000
5.61000, 543.10000
5.62000, 542.20000
5.63000, 542.30000
5.64000, 541.90000
5.65000, 541.00000
5.66000, 543.30000
5.67000, 543.00000
5.68000, 541.90000
5.69000, 541.00000
5.70000, 542.30000
5.71000, 542.20000
5.72000, 541.50000
5.73000, 541.60000
5.74000, 541.60000
5.75000, 542.40000
5.76000, 542.40000
5.77000, 542.90000
5.78000, 543.10000
5.79000, 541.60000
5.80000, 541.80000
5.81000, 541.80000
5.82000, 541.90000
5.83000, 541.60000
5.84000, 542.90000
5.85000, 542.70000
5.86000, 543.70000
5.87000, 541.90000
5.88000, 542.10000
5.89000, 541.80000
5.90000, 542.50000
5.91000, 542.70000
5.92000, 542.40000
5.93000, 542.30000
5.94000, 543.00000
5.95000, 543.00000
5.96000, 543.20000
5.97000, 541.80000
5.98000, 541.80000
5.99000, 542.20000
6.00000, 542.50000
6.01000, 542.10000
6.02000, 542.30000
6.03000, 542.10000
6.04000, 542.20000
6.05000, 543.70000
6.06000, 543.20000
6.07000, 542.50000
6.08000, 541.70000
6.09000, 542.10000
6.10000, 542.20000
6.11000, 542.70000
6.12000, 541.90000
6.13000, 542.10000
6.14000, 542.60000
6.15000, 543.10000
6.16000, 542.70000
6.17000, 541.70000
6.18000, 542.70000
6.19000, 542.90000
6.20000, 542.40000
6.21000, 542.20000
6.22000, 542.90000
6.23000, 541.80000
6.24000, 542.60000
6.25000, 541.40000
6.26000, 543.10000
6.27000, 543.20000
6.28000, 542.80000
6.29000, 543.20000
6.30000, 542.80000
6.31000, 542.60000
6.32000, 543.00000
6.33000, 542.90000
6.34000, 543.10000
6.35000, 542.30000
6.36000, 542.30000
6.37000, 542.90000
6.38000, 543.40000
6.39000, 543.30000
6.40000, 543.00000
6.41000, 541.20000
6.42000, 543.20000
6.43000, 542.00000
6.44000, 543.30000
6.45000, 542.60000
6.46000, 542.50000
6.47000, 542.60000
6.48000, 542.80000
6.49000, 543.20000
6.50000, 542.30000
6.51000, 542.30000
6.52000, 543.30000
6.53000, 543.40000
6.54000, 543.20000
6.55000, 543.60000
6.56000, 543.10000
6.57000, 543.50000
6.58000, 542.10000
6.59000, 542.40000
6.60000, 541.90000
6.61000, 542.20000
6.62000, 541.80000
6.63000, 542.70000
6.64000, 541.80000
6.65000, 541.70000
6.66000, 542.90000
6.67000, 541.90000
6.68000, 542.60000
6.69000, 541.90000
6.70000, 543.10000
6.71000, 542.70000
6.72000, 543.10000
6.73000, 541.90000
6.74000, 541.90000
6.75000, 543.40000
6.76000, 543.10000
6.77000, 543.10000
6.78000, 543.40000
6.79000, 542.80000
6.80000, 542.00000
6.81000, 542.50000
6.82000, 543.70000
6.83000, 543.30000
6.84000, 542.10000
6.85000, 541.60000
6.86000, 541.90000
6.87000, 541.30000
6.88000, 542.00000
6.89000, 542.20000
6.90000, 541.50000
6.91000, 542.10000
6.92000, 541.80000
6.93000, 541.90000
6.94000, 542.40000
6.95000, 542.50000
6.96000, 542.20000
6.97000, 542.00000
6.98000, 541.40000
6.99000, 543.30000
7.00000, 542.70000
7.01000, 543.50000
7.02000, 542.90000
7.03000, 543.30000
7.04000, 543.20000
7.05000, 542.90000
7.06000, 542.80000
7.07000, 543.30000
7.08000, 543.60000
7.09000, 543.20000
7.10000, 542.20000
7.11000, 543.00000
7.12000, 542.60000
7.13000, 542.50000
7.14000, 543.60000
7.15000, 543.10000
7.16000, 542.30000
7.17000, 543.00000
7.18000, 542.60000
7.19000, 543.60000
7.20000, 543.10000
7.21000, 542.40000
7.22000, 543.20000
7.23000, 542.80000
7.24000, 543.10000
7.25000, 543.40000
7.26000, 543.30000
7.27000, 542.60000
7.28000, 542.60000
7.29000, 543.60000
7.30000, 542.70000
7.31000, 543.20000
7.32000, 542.90000
7.33000, 542.40000
7.34000, 542.90000
7.35000, 542.90000
7.36000, 543.20000
7.37000, 543.50000
7.38000, 542.60000
7.39000, 542.30000
7.40000, 542.50000
7.41000, 542.00000
7.42000, 542.40000
7.43000, 541.70000
7.44000, 542.70000
7.45000, 542.80000
7.46000, 542.40000
7.47000, 542.40000
7.48000, 543.40000
7.49000, 542.40000
7.50000, 542.30000
7.51000, 543.30000
7.52000, 543.00000
7.53000, 542.50000
7.54000, 541.70000
7.55000, 541.80000
7.56000, 542.40000
7.57000, 542.10000
7.58000, 541.80000
7.59000, 541.90000
7.60000, 542.00000
7.61000, 543.30000
7.62000, 542.90000
7.63000, 542.40000
7.64000, 542.40000
7.65000, 542.10000
7.66000, 543.20000
7.67000, 542.50000
7.68000, 542.70000
7.69000, 542.70000
7.70000, 542.10000
7.71000, 541.80000
7.72000, 542.90000
7.73000, 543.10000
7.74000, 543.10000
7.75000, 542.10000
7.76000, 542.10000
7.77000, 542.40000
7.78000, 542.30000
7.79000, 542.10000
7.80000, 542.00000
7.81000, 542.40000
7.82000, 542.30000
7.83000, 542.10000
7.84000, 541.70000
7.85000, 542.40000
7.86000, 541.40000
7.87000, 541.50000
7.88000, 542.30000
7.89000, 541.20000
7.90000, 542.70000
7.91000, 542.50000
7.92000, 542.10000
7.93000, 541.50000
7.94000, 541.60000
7.95000, 542.50000
7.96000, 542.10000
7.97000, 542.20000
7.98000, 542.10000
7.99000, 541.60000
8.00000, 542.70000
8.01000, 543.00000
8.02000, 543.00000
8.03000, 542.80000
8.04000, 542.40000
8.05000, 543.10000
8.06000, 542.90000
8.07000, 543.10000
8.08000, 542.00000
8.09000, 542.10000
8.10000, 542.10000
8.11000, 543.20000
8.12000, 543.20000
8.13000, 541.60000
8.14000, 541.30000
8.15000, 542.10000
8.16000, 542.20000
8.17000, 541.80000
8.18000, 542.30000
8.19000, 542.80000
8.20000, 542.90000
8.21000, 542.90000
8.22000, 543.20000
8.23000, 543.10000
8.24000, 543.00000
8.25000, 543.40000
8.26000, 543.50000
8.27000, 541.60000
8.28000, 541.40000
8.29000, 542.30000
8.30000, 541.90000
8.31000, 542.40000
8.32000, 542.90000
8.33000, 542.80000
8.34000, 543.70000
8.35000, 543.10000
8.36000, 542.90000
8.37000, 541.70000
8.38000, 541.80000
8.39000, 541.50000
8.40000, 542.20000
8.41000, 541.90000
8.42000, 542.10000
8.43000, 541.70000
8.44000, 541.90000
8.45000, 541.60000
8.46000, 541.90000
8.47000, 542.10000
8.48000, 541.80000
8.49000, 541.40000
8.50000, 541.40000
8.51000, 541.80000
8.52000, 541.00000
8.53000, 542.30000
8.54000, 542.00000
8.55000, 542.10000
8.56000, 541.80000
8.57000, 542.20000
8.58000, 543.00000
8.59000, 542.40000
8.60000, 543.50000
8.61000, 542.40000
8.62000, 542.40000
8.63000, 542.40000
8.64000, 542.50000
8.65000, 542.30000
8.66000, 542.90000
8.67000, 542.40000
8.68000, 543.20000
8.69000, 542.80000
8.70000, 543.30000
8.71000, 542.20000
8.72000, 541.80000
8.73000, 542.20000
8.74000, 542.10000
8.75000, 543.40000
8.76000, 542.80000
8.77000, 541.90000
8.78000, 542.00000
8.79000, 542.60000
8.80000, 543.10000
8.81000, 541.90000
8.82000, 542.00000
8.83000, 542.00000
8.84000, 541.90000
8.85000, 542.00000
8.86000, 541.80000
8.87000, 543.90000
8.88000, 543.60000
8.89000, 542.30000
8.90000, 542.00000
8.91000, 542.20000
8.92000, 543.60000
8.93000, 543.60000
8.94000, 542.90000
8.95000, 543.20000
8.96000, 542.70000
8.97000, 543.00000
8.98000, 542.50000
8.99000, 543.00000
9.00000, 542.60000
9.01000, 542.50000
9.02000, 543.20000
9.03000, 542.60000
9.04000, 543.10000
9.05000, 542.10000
9.06000, 542.50000
9.07000, 543.10000
9.08000, 543.10000
9.09000, 542.80000
9.10000, 542.90000
9.11000, 542.50000
9.12000, 543.30000
9.13000, 543.10000
9.14000, 543.90000
9.15000, 542.10000
9.16000, 542.70000
9.17000, 542.20000
9.18000, 542.10000
9.19000, 542.30000
9.20000, 541.30000
9.21000, 542.90000
9.22000, 543.20000
9.23000, 543.30000
9.24000, 542.90000
9.25000, 542.40000
9.26000, 543.70000
9.27000, 542.90000
9.28000, 542.60000
9.29000, 542.10000
9.30000, 541.90000
9.31000, 541.80000
9.32000, 541.70000
9.33000, 541.40000
9.34000, 542.80000
9.35000, 541.90000
9.36000, 542.50000
9.37000, 542.30000
9.38000, 543.30000
9.39000, 542.00000
9.40000, 541.50000
9.41000, 543.00000
9.42000, 541.70000
9.43000, 542.70000
9.44000, 542.70000
9.45000, 542.70000
9.46000, 541.70000
9.47000, 543.50000
9.48000, 542.60000
9.49000, 542.50000
9.50000, 543.00000
9.51000, 543.30000
9.52000, 542.50000
9.53000, 542.50000
9.54000, 543.00000
9.55000, 541.60000
9.56000, 542.40000
9.57000, 541.70000
9.58000, 542.10000
9.59000, 541.90000
9.60000, 541.60000
9.61000, 542.20000
9.62000, 541.50000
9.63000, 541.90000
9.64000, 542.90000
9.65000, 541.90000
9.66000, 542.90000
9.67000, 541.60000
9.68000, 542.20000
9.69000, 543.30000
9.70000, 542.90000
9.71000, 543.70000
9.72000, 542.50000
9.73000, 543.50000
9.74000, 541.80000
9.75000, 543.00000
9.76000, 542.40000
9.77000, 543.30000
9.78000, 543.40000
9.79000, 542.30000
9.80000, 543.50000
9.81000, 543.10000
9.82000, 543.30000
9.83000, 542.90000
9.84000, 543.30000
9.85000, 543.00000
9.86000, 543.30000
9.87000, 543.10000
9.88000, 543.30000
9.89000, 542.90000
9.90000, 542.90000
9.91000, 542.70000
9.92000, 543.40000
